% CrIS April 2009 fast model
% by Scott Hannon/Larrabee Strow @ UMBC
%
% RMS and bias errors for the 48 training
% profiles at 5 angles each.
%    dBT = BT_truth - BT_fastmodel
%    RMS = sqrt(mean(dBT.^2))
%    bias = mean(dBT)
% No reflected thermal or solar radiance
% contributions. Standard/default trace gas
% amounts. 
%
% Units:
%    frequency in wavenumber
%    mean BT, RMS, and bias in Kelvin
%
% ID     freq    mean BT     RMS        bias
%----  --------  -------   ---------  ----------
    1   650.000  224.669   2.046E-02   9.842E-04
    2   650.625  223.913   1.904E-02   9.825E-04
    3   651.250  220.998   1.309E-02  -6.078E-04
    4   651.875  223.136   1.462E-02   1.357E-04
    5   652.500  221.694   1.342E-02  -2.785E-04
    6   653.125  222.229   1.550E-02  -4.850E-04
    7   653.750  222.799   1.314E-02   2.592E-04
    8   654.375  221.019   1.352E-02  -1.519E-03
    9   655.000  223.425   1.271E-02   1.411E-04
   10   655.625  221.640   1.288E-02  -1.503E-03
   11   656.250  222.872   1.343E-02   1.618E-03
   12   656.875  222.912   1.541E-02   2.728E-03
   13   657.500  221.631   1.235E-02   1.311E-03
   14   658.125  223.406   1.555E-02  -2.275E-03
   15   658.750  221.095   1.158E-02   6.022E-04
   16   659.375  222.571   1.583E-02   1.747E-03
   17   660.000  222.238   1.318E-02   1.942E-03
   18   660.625  221.183   1.426E-02  -7.158E-04
   19   661.250  222.720   1.298E-02  -6.742E-04
   20   661.875  222.766   1.671E-02  -3.124E-03
   21   662.500  228.899   2.035E-02   3.401E-04
   22   663.125  228.753   1.990E-02   3.016E-05
   23   663.750  224.422   1.900E-02   3.021E-03
   24   664.375  224.521   1.694E-02   2.771E-03
   25   665.000  224.676   1.486E-02   7.906E-05
   26   665.625  222.901   1.409E-02   2.909E-04
   27   666.250  220.899   1.014E-02   1.635E-03
   28   666.875  227.298   1.887E-02   4.046E-03
   29   667.500  241.721   2.229E-02  -3.961E-03
   30   668.125  247.012   2.621E-02  -7.407E-03
   31   668.750  241.865   3.824E-02  -1.550E-03
   32   669.375  235.566   3.449E-02  -2.960E-03
   33   670.000  229.278   3.158E-02   9.174E-04
   34   670.625  224.583   2.913E-02  -6.854E-03
   35   671.250  225.245   2.361E-02   1.031E-03
   36   671.875  222.520   2.047E-02  -3.656E-03
   37   672.500  223.417   1.819E-02   4.106E-03
   38   673.125  224.367   1.841E-02  -7.138E-04
   39   673.750  221.919   1.248E-02   8.173E-04
   40   674.375  224.657   1.731E-02  -3.776E-03
   41   675.000  222.355   1.358E-02   6.928E-04
   42   675.625  223.216   1.538E-02  -1.180E-03
   43   676.250  224.397   1.569E-02   1.220E-03
   44   676.875  221.658   1.304E-02  -9.296E-04
   45   677.500  224.674   1.468E-02  -8.026E-04
   46   678.125  222.636   1.480E-02  -5.081E-04
   47   678.750  223.160   1.780E-02   5.382E-03
   48   679.375  224.879   2.702E-02   8.863E-03
   49   680.000  221.557   1.510E-02   3.460E-03
   50   680.625  224.426   1.644E-02  -3.082E-03
   51   681.250  222.631   1.431E-02  -1.016E-04
   52   681.875  222.023   1.583E-02  -4.994E-04
   53   682.500  224.158   1.585E-02  -2.040E-04
   54   683.125  220.776   1.538E-02  -9.192E-04
   55   683.750  223.197   1.431E-02  -1.587E-03
   56   684.375  222.279   1.541E-02  -8.373E-04
   57   685.000  220.743   1.298E-02  -2.164E-03
   58   685.625  223.302   1.520E-02   1.999E-03
   59   686.250  220.184   1.329E-02  -4.807E-03
   60   686.875  221.394   1.342E-02   1.581E-03
   61   687.500  221.428   1.242E-02  -3.393E-03
   62   688.125  219.726   1.820E-02   2.195E-03
   63   688.750  223.216   3.020E-02  -2.476E-04
   64   689.375  221.524   3.407E-02   3.802E-03
   65   690.000  221.184   1.890E-02  -4.182E-04
   66   690.625  221.522   1.576E-02   1.362E-03
   67   691.250  219.105   1.271E-02  -1.376E-03
   68   691.875  221.219   1.436E-02   4.415E-04
   69   692.500  220.150   1.451E-02  -1.848E-03
   70   693.125  219.297   1.448E-02  -2.233E-03
   71   693.750  220.527   1.529E-02  -2.509E-03
   72   694.375  218.808   1.614E-02  -3.747E-03
   73   695.000  219.702   1.208E-02   4.556E-04
   74   695.625  219.949   1.690E-02  -5.970E-04
   75   696.250  218.965   1.554E-02  -3.925E-03
   76   696.875  220.042   1.754E-02  -1.578E-03
   77   697.500  219.723   1.930E-02  -3.393E-03
   78   698.125  219.457   1.638E-02  -7.524E-04
   79   698.750  220.120   1.985E-02   1.682E-03
   80   699.375  220.078   1.821E-02   1.359E-03
   81   700.000  219.881   1.739E-02   4.955E-03
   82   700.625  220.472   2.206E-02   3.197E-03
   83   701.250  220.632   2.331E-02   2.904E-03
   84   701.875  220.713   2.411E-02   2.974E-03
   85   702.500  221.466   3.064E-02   5.217E-03
   86   703.125  222.045   2.700E-02   2.633E-03
   87   703.750  223.130   4.733E-02   5.805E-03
   88   704.375  223.752   4.600E-02  -4.106E-03
   89   705.000  223.532   5.219E-02  -1.410E-02
   90   705.625  225.079   4.150E-02  -2.457E-03
   91   706.250  225.681   4.818E-02  -7.488E-03
   92   706.875  225.589   4.742E-02   2.432E-03
   93   707.500  226.757   4.702E-02  -5.956E-03
   94   708.125  227.073   5.791E-02   6.199E-03
   95   708.750  227.380   5.454E-02   8.430E-03
   96   709.375  228.856   4.811E-02   5.574E-03
   97   710.000  229.014   6.278E-02   3.360E-02
   98   710.625  229.858   4.892E-02  -1.129E-02
   99   711.250  230.864   5.211E-02  -1.363E-02
  100   711.875  230.900   4.912E-02  -1.038E-02
  101   712.500  233.953   5.857E-02  -1.584E-02
  102   713.125  233.189   7.448E-02  -1.081E-02
  103   713.750  233.486   6.493E-02   9.413E-03
  104   714.375  237.090   5.579E-02  -1.590E-03
  105   715.000  234.522   7.218E-02   1.558E-02
  106   715.625  238.090   7.136E-02   1.810E-02
  107   716.250  238.659   4.841E-02   3.373E-03
  108   716.875  235.688   9.341E-02  -2.349E-02
  109   717.500  238.938   5.428E-02   2.451E-03
  110   718.125  233.602   9.099E-02   9.414E-03
  111   718.750  225.657   6.358E-02   1.518E-02
  112   719.375  222.778   5.210E-02  -9.480E-04
  113   720.000  224.467   4.384E-02   1.520E-04
  114   720.625  227.173   5.280E-02  -4.703E-03
  115   721.250  231.121   5.632E-02   7.411E-03
  116   721.875  239.648   5.316E-02   1.583E-02
  117   722.500  244.920   6.782E-02   3.078E-02
  118   723.125  247.119   4.576E-02   1.319E-02
  119   723.750  244.263   5.982E-02   2.490E-02
  120   724.375  248.034   3.307E-02   5.904E-03
  121   725.000  247.311   7.877E-02   3.077E-03
  122   725.625  244.572   8.759E-02   8.005E-03
  123   726.250  248.050   3.232E-02   7.795E-03
  124   726.875  242.714   3.578E-02  -1.068E-03
  125   727.500  245.257   3.585E-02   1.351E-02
  126   728.125  244.167   4.663E-02   4.866E-03
  127   728.750  239.405   5.849E-02  -6.849E-03
  128   729.375  241.913   7.822E-02   3.293E-03
  129   730.000  238.405   1.182E-01   2.158E-02
  130   730.625  240.895   1.717E-01   1.201E-01
  131   731.250  240.801   6.468E-02  -6.624E-03
  132   731.875  240.812   5.162E-02  -1.169E-02
  133   732.500  244.948   4.041E-02   1.642E-02
  134   733.125  240.935   5.613E-02   1.009E-02
  135   733.750  244.504   3.567E-02  -3.942E-04
  136   734.375  243.278   5.602E-02   2.531E-02
  137   735.000  242.418   5.118E-02  -9.916E-03
  138   735.625  245.552   4.728E-02  -1.598E-02
  139   736.250  241.301   4.709E-02  -1.623E-03
  140   736.875  244.852   3.785E-02   1.055E-02
  141   737.500  243.445   5.489E-02   1.267E-02
  142   738.125  244.802   4.410E-02   6.560E-03
  143   738.750  246.608   4.198E-02   5.068E-03
  144   739.375  243.336   5.168E-02  -5.935E-04
  145   740.000  245.694   5.062E-02   9.409E-03
  146   740.625  238.911   8.978E-02   9.616E-03
  147   741.250  233.854   1.397E-01   4.897E-03
  148   741.875  237.866   1.923E-01  -9.772E-03
  149   742.500  245.709   7.925E-02  -3.219E-03
  150   743.125  251.880   4.525E-02  -2.866E-03
  151   743.750  248.019   9.727E-02  -4.636E-02
  152   744.375  250.099   8.009E-02  -1.779E-02
  153   745.000  249.644   4.752E-02  -2.398E-03
  154   745.625  252.096   5.654E-02  -1.301E-02
  155   746.250  255.914   3.233E-02   6.316E-03
  156   746.875  252.603   5.073E-02   3.439E-03
  157   747.500  256.778   4.358E-02   9.167E-03
  158   748.125  253.630   5.947E-02   2.663E-03
  159   748.750  255.598   5.591E-02   6.265E-03
  160   749.375  257.040   5.052E-02  -1.180E-02
  161   750.000  255.010   4.491E-02  -9.397E-03
  162   750.625  258.261   3.949E-02   1.153E-02
  163   751.250  256.082   5.885E-02   1.159E-02
  164   751.875  258.413   4.772E-02  -8.072E-04
  165   752.500  257.703   5.308E-02   1.417E-03
  166   753.125  258.014   5.380E-02   1.155E-02
  167   753.750  258.802   4.953E-02   8.176E-03
  168   754.375  255.476   7.656E-02   1.787E-02
  169   755.000  259.800   5.467E-02   1.067E-02
  170   755.625  260.164   5.027E-02  -6.816E-04
  171   756.250  261.606   4.486E-02   1.619E-02
  172   756.875  262.271   3.979E-02   5.296E-03
  173   757.500  261.402   5.403E-02   8.238E-03
  174   758.125  264.865   3.476E-02   1.550E-02
  175   758.750  264.093   4.671E-02   1.350E-02
  176   759.375  265.710   3.510E-02   1.080E-02
  177   760.000  265.344   3.883E-02   2.542E-03
  178   760.625  265.188   4.133E-02   7.219E-03
  179   761.250  266.644   2.986E-02   6.049E-03
  180   761.875  265.782   4.522E-02   1.262E-02
  181   762.500  267.299   2.310E-02   3.554E-03
  182   763.125  266.644   3.517E-02   1.149E-02
  183   763.750  267.202   2.500E-02   2.625E-03
  184   764.375  267.445   2.093E-02   1.209E-03
  185   765.000  267.221   2.454E-02   2.746E-03
  186   765.625  268.317   1.425E-02   2.074E-03
  187   766.250  267.778   1.851E-02   4.921E-03
  188   766.875  268.123   1.446E-02  -1.599E-04
  189   767.500  267.956   1.467E-02   1.601E-03
  190   768.125  267.793   1.704E-02   1.519E-03
  191   768.750  266.673   1.417E-02  -1.507E-03
  192   769.375  266.304   1.110E-02  -2.036E-03
  193   770.000  266.895   1.306E-02  -1.859E-03
  194   770.625  267.757   1.166E-02  -2.213E-03
  195   771.250  268.535   8.391E-03   2.790E-03
  196   771.875  269.076   6.608E-03   1.223E-03
  197   772.500  269.280   1.262E-02   7.182E-03
  198   773.125  269.380   5.956E-03   5.040E-04
  199   773.750  269.404   1.181E-02   5.069E-03
  200   774.375  269.075   6.043E-03   6.982E-04
  201   775.000  267.859   8.126E-03  -1.517E-03
  202   775.625  266.247   1.370E-02  -1.823E-03
  203   776.250  266.777   1.030E-02  -1.068E-03
  204   776.875  265.327   1.330E-02  -1.666E-03
  205   777.500  266.899   1.022E-02  -9.909E-04
  206   778.125  269.165   8.236E-03  -1.137E-03
  207   778.750  268.159   7.515E-03  -1.616E-03
  208   779.375  267.467   8.667E-03  -3.261E-03
  209   780.000  269.048   4.857E-03  -1.818E-03
  210   780.625  269.732   5.336E-03   5.267E-04
  211   781.250  269.982   7.850E-03   5.186E-03
  212   781.875  269.753   5.124E-03   5.381E-05
  213   782.500  269.847   5.672E-03   2.345E-03
  214   783.125  269.566   5.926E-03  -8.044E-04
  215   783.750  267.120   9.367E-03  -2.066E-03
  216   784.375  263.766   1.298E-02  -4.959E-04
  217   785.000  266.029   1.148E-02  -1.023E-03
  218   785.625  269.356   7.202E-03  -8.038E-04
  219   786.250  270.103   3.700E-03   8.858E-04
  220   786.875  270.199   3.049E-03  -4.254E-04
  221   787.500  270.362   2.470E-03   7.050E-04
  222   788.125  270.391   2.607E-03  -4.795E-04
  223   788.750  270.430   5.246E-03   4.020E-03
  224   789.375  270.476   3.298E-03  -7.154E-04
  225   790.000  270.443   8.357E-03   6.692E-03
  226   790.625  269.714   1.085E-02   1.072E-04
  227   791.250  264.538   5.889E-02   8.142E-03
  228   791.875  260.929   5.971E-02   1.074E-02
  229   792.500  265.745   2.633E-02   7.106E-03
  230   793.125  268.196   6.789E-03  -1.120E-03
  231   793.750  267.130   1.001E-02  -1.298E-03
  232   794.375  267.876   8.171E-03  -2.272E-03
  233   795.000  268.092   7.785E-03  -1.546E-03
  234   795.625  264.116   1.571E-02   9.514E-04
  235   796.250  264.665   1.501E-02   1.507E-03
  236   796.875  267.608   8.235E-03  -3.296E-03
  237   797.500  267.239   7.950E-03  -2.490E-03
  238   798.125  263.700   1.978E-02   4.317E-03
  239   798.750  261.885   2.288E-02   6.167E-03
  240   799.375  266.609   1.117E-02  -1.804E-03
  241   800.000  269.408   7.488E-03   6.701E-04
  242   800.625  270.133   8.790E-03   5.268E-03
  243   801.250  270.085   6.086E-03  -9.695E-05
  244   801.875  269.993   1.017E-02   6.447E-03
  245   802.500  268.977   6.990E-03  -9.549E-04
  246   803.125  266.287   1.244E-02  -1.951E-03
  247   803.750  267.116   1.001E-02  -1.541E-03
  248   804.375  269.463   5.260E-03  -1.755E-03
  249   805.000  270.222   6.306E-03   4.477E-04
  250   805.625  270.200   3.999E-03   1.718E-03
  251   806.250  269.804   4.573E-03  -1.248E-03
  252   806.875  270.283   1.063E-02   3.896E-03
  253   807.500  269.315   4.396E-03  -2.030E-03
  254   808.125  267.509   9.406E-03  -3.704E-03
  255   808.750  268.737   5.764E-03  -2.602E-03
  256   809.375  270.163   5.009E-03   5.139E-04
  257   810.000  270.684   3.868E-03   4.232E-04
  258   810.625  270.633   1.102E-02   9.633E-03
  259   811.250  270.631   4.252E-03   6.740E-04
  260   811.875  270.775   1.402E-02   1.223E-02
  261   812.500  270.567   4.112E-03   1.156E-03
  262   813.125  270.081   3.830E-03  -2.355E-03
  263   813.750  268.225   7.416E-03  -1.489E-03
  264   814.375  267.719   1.028E-02  -2.688E-03
  265   815.000  269.437   6.062E-03  -1.349E-03
  266   815.625  270.517   5.188E-03   1.560E-03
  267   816.250  270.790   5.093E-03   9.097E-04
  268   816.875  270.798   9.366E-03   8.057E-03
  269   817.500  270.870   4.581E-03   4.503E-04
  270   818.125  270.974   1.397E-02   1.220E-02
  271   818.750  270.912   5.970E-03   5.816E-04
  272   819.375  271.015   1.448E-02   1.238E-02
  273   820.000  270.990   5.714E-03   9.785E-04
  274   820.625  271.013   1.476E-02   1.279E-02
  275   821.250  271.055   4.785E-03   6.832E-04
  276   821.875  271.033   1.226E-02   1.075E-02
  277   822.500  271.055   5.733E-03   1.097E-03
  278   823.125  271.088   7.857E-03   5.949E-03
  279   823.750  271.118   5.468E-03   1.647E-03
  280   824.375  270.774   8.801E-03  -1.897E-03
  281   825.000  269.827   5.956E-03  -1.944E-03
  282   825.625  270.269   6.892E-03  -4.601E-03
  283   826.250  270.989   4.758E-03   1.734E-03
  284   826.875  270.241   6.877E-03  -3.756E-03
  285   827.500  268.869   7.429E-03  -4.226E-04
  286   828.125  269.529   6.657E-03  -2.488E-03
  287   828.750  270.934   5.866E-03   1.897E-03
  288   829.375  271.185   3.973E-03   1.153E-03
  289   830.000  271.265   4.774E-03   2.195E-03
  290   830.625  271.249   3.814E-03   1.243E-03
  291   831.250  271.309   4.607E-03   2.466E-03
  292   831.875  271.284   4.125E-03   2.192E-03
  293   832.500  271.307   4.760E-03   2.315E-03
  294   833.125  271.274   3.679E-03   1.745E-03
  295   833.750  271.318   7.352E-03  -1.138E-03
  296   834.375  271.257   2.907E-03   8.855E-04
  297   835.000  271.072   7.408E-03   7.889E-04
  298   835.625  270.843   4.870E-03  -2.378E-03
  299   836.250  271.128   5.500E-03   1.208E-03
  300   836.875  271.226   2.968E-03   6.860E-04
  301   837.500  271.231   4.101E-03   1.140E-03
  302   838.125  271.147   2.867E-03  -7.630E-04
  303   838.750  271.073   3.155E-03   1.142E-03
  304   839.375  269.788   6.875E-03  -3.658E-03
  305   840.000  268.641   9.216E-03  -3.204E-03
  306   840.625  269.923   6.638E-03  -3.865E-03
  307   841.250  270.645   5.241E-03  -1.296E-03
  308   841.875  270.302   9.525E-03  -2.435E-03
  309   842.500  270.628   4.839E-03  -1.209E-03
  310   843.125  270.852   4.547E-03  -3.916E-03
  311   843.750  270.841   2.877E-03  -1.547E-03
  312   844.375  270.746   2.916E-03  -1.905E-03
  313   845.000  270.714   4.600E-03  -1.762E-03
  314   845.625  270.600   3.569E-03  -2.220E-03
  315   846.250  270.612   3.096E-03  -1.188E-03
  316   846.875  270.572   5.152E-03  -4.405E-03
  317   847.500  270.626   2.069E-03  -6.874E-04
  318   848.125  270.602   6.048E-03  -5.244E-03
  319   848.750  270.062   3.625E-03  -2.001E-03
  320   849.375  268.353   1.073E-02  -7.738E-03
  321   850.000  268.829   5.964E-03  -1.773E-03
  322   850.625  270.310   8.436E-03  -5.594E-03
  323   851.250  270.454   3.433E-03   1.156E-03
  324   851.875  268.710   9.882E-03  -7.311E-03
  325   852.500  266.351   1.183E-02  -2.022E-03
  326   853.125  267.875   1.253E-02  -7.812E-03
  327   853.750  269.602   6.284E-03  -9.745E-04
  328   854.375  268.713   1.213E-02  -7.675E-03
  329   855.000  269.324   7.520E-03  -1.178E-03
  330   855.625  270.929   9.377E-03  -5.560E-03
  331   856.250  271.259   2.931E-03   2.033E-03
  332   856.875  271.334   5.074E-03   2.578E-03
  333   857.500  271.332   2.964E-03   2.116E-03
  334   858.125  271.201   9.671E-03  -3.654E-03
  335   858.750  271.117   2.678E-03   4.951E-04
  336   859.375  271.254   8.000E-03  -3.309E-03
  337   860.000  271.312   5.105E-03   2.196E-03
  338   860.625  271.424   4.438E-03   2.248E-03
  339   861.250  271.427   2.943E-03   2.125E-03
  340   861.875  271.440   6.645E-03   4.170E-03
  341   862.500  271.412   3.272E-03   2.895E-03
  342   863.125  271.421   4.454E-03   2.244E-03
  343   863.750  271.373   3.318E-03   2.942E-03
  344   864.375  270.987   1.137E-02  -5.412E-03
  345   865.000  269.945   5.943E-03  -2.094E-04
  346   865.625  269.968   9.500E-03  -6.781E-03
  347   866.250  271.049   2.179E-03   7.403E-04
  348   866.875  271.379   2.845E-03  -1.775E-03
  349   867.500  271.388   3.448E-03   3.143E-03
  350   868.125  271.371   3.135E-03  -2.643E-03
  351   868.750  271.394   3.377E-03   3.052E-03
  352   869.375  271.371   3.735E-03  -3.367E-03
  353   870.000  271.318   3.344E-03   2.904E-03
  354   870.625  270.329   8.155E-03  -6.989E-03
  355   871.250  269.136   6.427E-03  -4.922E-04
  356   871.875  270.282   8.350E-03  -7.193E-03
  357   872.500  271.305   3.403E-03   3.025E-03
  358   873.125  271.371   4.128E-03  -3.721E-03
  359   873.750  271.410   3.422E-03   3.023E-03
  360   874.375  271.392   3.607E-03  -3.224E-03
  361   875.000  271.417   3.430E-03   3.034E-03
  362   875.625  271.364   4.605E-03  -4.162E-03
  363   876.250  271.382   3.862E-03   3.425E-03
  364   876.875  271.371   4.253E-03  -3.821E-03
  365   877.500  271.226   3.758E-03   2.610E-03
  366   878.125  270.101   8.130E-03  -6.685E-03
  367   878.750  269.577   4.841E-03   2.764E-04
  368   879.375  270.780   1.186E-02  -5.711E-03
  369   880.000  271.350   3.728E-03   3.320E-03
  370   880.625  271.017   7.080E-03  -4.569E-03
  371   881.250  270.822   1.321E-03  -1.113E-04
  372   881.875  271.161   5.117E-03  -4.359E-03
  373   882.500  271.148   6.042E-03   3.298E-03
  374   883.125  270.542   7.976E-03  -6.629E-03
  375   883.750  269.909   5.097E-03   4.633E-04
  376   884.375  270.523   7.943E-03  -6.873E-03
  377   885.000  271.230   3.918E-03   3.481E-03
  378   885.625  271.265   4.478E-03  -3.967E-03
  379   886.250  270.973   1.726E-03   3.962E-04
  380   886.875  269.433   8.888E-03  -7.413E-03
  381   887.500  269.206   4.980E-03   3.857E-04
  382   888.125  270.323   8.405E-03  -7.123E-03
  383   888.750  270.456   4.412E-03   1.511E-03
  384   889.375  270.905   1.099E-02  -5.316E-03
  385   890.000  270.955   7.124E-03   3.112E-03
  386   890.625  270.970   8.764E-03  -4.738E-03
  387   891.250  270.860   2.623E-03   1.422E-03
  388   891.875  271.121   7.033E-03  -4.552E-03
  389   892.500  271.354   4.165E-03   3.724E-03
  390   893.125  271.413   9.569E-03   6.127E-03
  391   893.750  271.424   4.306E-03   3.559E-03
  392   894.375  271.446   9.302E-03   5.960E-03
  393   895.000  271.398   4.468E-03   3.886E-03
  394   895.625  271.290   2.982E-03  -1.735E-03
  395   896.250  271.229   4.620E-03   4.096E-03
  396   896.875  271.372   4.863E-03  -3.533E-03
  397   897.500  271.344   5.679E-03   3.755E-03
  398   898.125  271.390   5.558E-03  -3.929E-03
  399   898.750  271.521   4.662E-03   4.286E-03
  400   899.375  271.575   6.649E-03   3.801E-03
  401   900.000  271.578   4.606E-03   4.190E-03
  402   900.625  271.585   6.835E-03   3.942E-03
  403   901.250  271.594   4.620E-03   4.164E-03
  404   901.875  271.581   3.442E-03   8.321E-04
  405   902.500  271.551   4.872E-03   4.501E-03
  406   903.125  271.573   3.667E-03   1.327E-03
  407   903.750  271.565   4.798E-03   4.124E-03
  408   904.375  271.558   4.898E-03   2.348E-03
  409   905.000  271.478   4.852E-03   4.363E-03
  410   905.625  271.201   6.661E-03  -5.790E-03
  411   906.250  270.827   5.472E-03   2.915E-03
  412   906.875  271.099   6.946E-03  -5.755E-03
  413   907.500  271.346   6.184E-03   4.429E-03
  414   908.125  270.718   7.920E-03  -6.913E-03
  415   908.750  269.067   8.134E-03   1.777E-03
  416   909.375  269.498   1.013E-02  -7.504E-03
  417   910.000  270.873   8.542E-03   4.196E-03
  418   910.625  271.074   9.957E-03  -5.072E-03
  419   911.250  271.235   5.839E-03   4.445E-03
  420   911.875  271.224   5.076E-03  -4.457E-03
  421   912.500  271.255   1.090E-02   8.515E-03
  422   913.125  271.130   6.138E-03  -4.992E-03
  423   913.750  270.891   4.155E-03   3.359E-03
  424   914.375  270.883   1.030E-02  -5.555E-03
  425   915.000  271.164   5.676E-03   4.829E-03
  426   915.625  271.191   5.065E-03  -4.302E-03
  427   916.250  271.248   1.289E-02   1.039E-02
  428   916.875  271.226   4.863E-03  -4.113E-03
  429   917.500  271.242   5.651E-03   5.267E-03
  430   918.125  270.936   1.064E-02  -6.058E-03
  431   918.750  270.904   4.063E-03   3.349E-03
  432   919.375  271.112   6.588E-03  -5.457E-03
  433   920.000  271.234   6.194E-03   5.662E-03
  434   920.625  270.982   6.138E-03  -4.732E-03
  435   921.250  270.188   4.849E-03   3.496E-03
  436   921.875  269.198   1.109E-02  -8.108E-03
  437   922.500  269.438   6.587E-03   2.791E-03
  438   923.125  270.500   8.969E-03  -5.740E-03
  439   923.750  271.252   5.797E-03   5.335E-03
  440   924.375  270.726   9.367E-03  -8.564E-03
  441   925.000  269.859   5.149E-03   2.318E-03
  442   925.625  270.603   9.528E-03  -8.720E-03
  443   926.250  271.225   5.953E-03   5.603E-03
  444   926.875  271.144   4.262E-03  -3.729E-03
  445   927.500  271.176   6.296E-03   5.983E-03
  446   928.125  271.125   6.581E-03  -5.539E-03
  447   928.750  270.874   8.411E-03   5.661E-03
  448   929.375  270.954   7.518E-03  -5.337E-03
  449   930.000  271.202   6.343E-03   5.987E-03
  450   930.625  271.095   4.786E-03  -4.243E-03
  451   931.250  271.138   7.167E-03   6.649E-03
  452   931.875  271.332   5.713E-03  -4.930E-03
  453   932.500  271.313   7.196E-03   6.579E-03
  454   933.125  271.309   4.265E-03  -3.435E-03
  455   933.750  271.607   8.070E-03   7.406E-03
  456   934.375  271.531   4.828E-03  -4.155E-03
  457   935.000  271.461   7.374E-03   6.695E-03
  458   935.625  271.723   5.303E-03  -4.731E-03
  459   936.250  271.685   6.797E-03   6.298E-03
  460   936.875  271.460   6.464E-03  -5.118E-03
  461   937.500  271.763   7.138E-03   6.325E-03
  462   938.125  271.687   6.588E-03  -5.523E-03
  463   938.750  271.504   6.544E-03   5.549E-03
  464   939.375  271.797   6.324E-03  -5.477E-03
  465   940.000  271.681   7.407E-03   6.671E-03
  466   940.625  271.179   8.374E-03  -5.109E-03
  467   941.250  271.512   8.769E-03   6.283E-03
  468   941.875  271.561   5.617E-03  -3.963E-03
  469   942.500  271.416   7.025E-03   5.634E-03
  470   943.125  271.787   4.028E-03  -2.817E-03
  471   943.750  271.536   7.899E-03   6.590E-03
  472   944.375  271.129   7.323E-03  -1.409E-03
  473   945.000  271.516   9.280E-03   5.764E-03
  474   945.625  271.343   5.148E-03  -8.405E-04
  475   946.250  271.328   8.080E-03   6.394E-03
  476   946.875  271.642   3.171E-03  -1.350E-03
  477   947.500  270.645   5.708E-03   3.242E-03
  478   948.125  269.337   9.994E-03  -3.736E-03
  479   948.750  270.331   6.021E-03   2.014E-03
  480   949.375  271.097   5.772E-03   1.486E-04
  481   950.000  271.598   6.011E-03   4.919E-03
  482   950.625  271.653   4.771E-03   3.193E-03
  483   951.250  271.310   7.106E-03   5.094E-03
  484   951.875  271.736   9.067E-03   6.941E-03
  485   952.500  271.422   7.492E-03   3.943E-03
  486   953.125  270.831   5.866E-03  -1.434E-03
  487   953.750  271.245   4.957E-03   1.291E-03
  488   954.375  271.215   5.165E-03   1.191E-03
  489   955.000  270.918   4.758E-03   3.597E-04
  490   955.625  270.953   5.486E-03  -2.021E-03
  491   956.250  271.379   6.832E-03   3.964E-03
  492   956.875  271.886   5.152E-03   4.100E-03
  493   957.500  271.847   6.505E-03   4.180E-03
  494   958.125  271.822   5.633E-03   4.194E-03
  495   958.750  271.881   8.992E-03   4.229E-03
  496   959.375  271.611   8.752E-03   2.980E-03
  497   960.000  271.844   9.400E-03   4.060E-03
  498   960.625  272.048   6.043E-03  -3.761E-04
  499   961.250  272.055   1.253E-02   8.697E-03
  500   961.875  271.993   4.664E-03   2.276E-03
  501   962.500  272.046   1.133E-02   7.478E-03
  502   963.125  271.870   5.809E-03   4.539E-03
  503   963.750  271.948   9.247E-03   5.158E-03
  504   964.375  271.774   5.175E-03   3.417E-03
  505   965.000  271.676   8.139E-03   4.223E-03
  506   965.625  271.554   4.948E-03   9.751E-04
  507   966.250  271.183   7.891E-03   2.106E-03
  508   966.875  271.268   7.279E-03   5.554E-04
  509   967.500  271.261   5.570E-03   1.193E-03
  510   968.125  271.505   4.807E-03   2.133E-03
  511   968.750  271.501   4.544E-03   1.152E-03
  512   969.375  271.346   6.146E-03   2.320E-03
  513   970.000  271.451   7.148E-03   1.162E-04
  514   970.625  270.947   8.448E-03   4.011E-04
  515   971.250  270.820   1.067E-02   1.796E-03
  516   971.875  270.644   1.115E-02   2.090E-03
  517   972.500  271.283   7.511E-03   1.063E-03
  518   973.125  270.659   1.218E-02   6.200E-04
  519   973.750  270.452   7.949E-03  -1.811E-03
  520   974.375  270.730   1.118E-02   1.485E-03
  521   975.000  271.116   9.448E-03  -1.138E-04
  522   975.625  270.455   1.324E-02  -7.493E-04
  523   976.250  270.431   1.364E-02  -5.872E-04
  524   976.875  270.835   1.276E-02  -6.490E-04
  525   977.500  270.727   1.466E-02   1.374E-03
  526   978.125  271.063   1.486E-02   1.608E-03
  527   978.750  271.170   1.695E-02   2.311E-03
  528   979.375  271.286   1.615E-02   2.308E-03
  529   980.000  271.302   1.560E-02   2.044E-03
  530   980.625  271.233   1.937E-02   2.351E-03
  531   981.250  271.102   2.157E-02   2.462E-03
  532   981.875  271.072   2.208E-02   1.488E-03
  533   982.500  271.228   2.017E-02   1.716E-03
  534   983.125  271.166   2.171E-02   7.783E-04
  535   983.750  270.957   2.550E-02   2.100E-03
  536   984.375  270.827   2.779E-02   3.124E-03
  537   985.000  270.994   2.693E-02   3.010E-03
  538   985.625  271.058   2.681E-02   5.192E-03
  539   986.250  270.826   3.051E-02   3.049E-03
  540   986.875  270.697   3.409E-02   6.488E-03
  541   987.500  270.601   3.388E-02   2.866E-03
  542   988.125  270.757   3.167E-02   5.278E-03
  543   988.750  270.412   3.491E-02   2.957E-03
  544   989.375  270.124   3.905E-02   2.151E-03
  545   990.000  270.004   4.170E-02  -7.710E-04
  546   990.625  270.086   3.916E-02  -8.692E-04
  547   991.250  269.955   3.936E-02  -7.483E-04
  548   991.875  269.320   4.114E-02   3.280E-03
  549   992.500  269.278   4.052E-02   1.256E-04
  550   993.125  269.149   3.976E-02   3.014E-03
  551   993.750  269.341   4.003E-02   6.811E-04
  552   994.375  268.382   3.445E-02   1.162E-03
  553   995.000  268.321   3.489E-02   7.935E-04
  554   995.625  268.093   3.874E-02   1.645E-03
  555   996.250  268.618   3.919E-02   1.329E-03
  556   996.875  267.633   3.969E-02   1.054E-03
  557   997.500  267.189   4.050E-02   1.742E-03
  558   998.125  266.748   4.300E-02  -9.902E-04
  559   998.750  266.920   3.770E-02  -6.001E-05
  560   999.375  265.703   4.566E-02  -9.834E-04
  561  1000.000  265.029   4.871E-02   1.256E-03
  562  1000.625  265.030   4.717E-02  -2.742E-04
  563  1001.250  265.705   4.680E-02   1.953E-03
  564  1001.875  264.821   5.698E-02   4.271E-04
  565  1002.500  263.972   5.812E-02   6.019E-04
  566  1003.125  263.488   5.203E-02  -8.465E-04
  567  1003.750  263.392   4.924E-02   1.394E-03
  568  1004.375  262.569   5.525E-02   9.664E-04
  569  1005.000  261.701   5.708E-02   2.839E-03
  570  1005.625  261.522   5.117E-02   5.287E-04
  571  1006.250  261.402   5.112E-02   1.042E-03
  572  1006.875  260.623   6.209E-02  -6.261E-04
  573  1007.500  259.754   6.059E-02   2.047E-04
  574  1008.125  260.032   5.591E-02   1.817E-03
  575  1008.750  260.093   6.405E-02   3.343E-03
  576  1009.375  258.325   8.019E-02   4.766E-03
  577  1010.000  256.707   7.714E-02   3.182E-03
  578  1010.625  256.760   6.763E-02  -6.186E-05
  579  1011.250  256.574   7.071E-02   1.240E-03
  580  1011.875  255.530   7.092E-02   5.955E-03
  581  1012.500  255.467   5.666E-02   1.435E-03
  582  1013.125  255.919   5.395E-02   5.000E-03
  583  1013.750  254.239   5.913E-02  -2.006E-03
  584  1014.375  252.692   7.010E-02  -1.256E-02
  585  1015.000  253.571   6.235E-02  -8.030E-03
  586  1015.625  254.091   5.976E-02   3.693E-03
  587  1016.250  252.575   5.621E-02  -1.658E-04
  588  1016.875  252.129   5.142E-02   9.675E-04
  589  1017.500  251.527   5.518E-02  -3.328E-03
  590  1018.125  250.021   6.050E-02  -3.737E-03
  591  1018.750  249.482   5.536E-02   4.172E-05
  592  1019.375  250.404   5.067E-02   1.644E-03
  593  1020.000  249.578   5.171E-02   1.280E-03
  594  1020.625  248.095   6.187E-02   3.051E-03
  595  1021.250  248.545   6.296E-02   7.231E-04
  596  1021.875  249.090   6.449E-02   5.425E-04
  597  1022.500  247.880   6.762E-02   4.440E-04
  598  1023.125  247.687   7.253E-02   6.044E-03
  599  1023.750  248.447   7.733E-02   6.959E-04
  600  1024.375  247.708   8.965E-02   1.111E-03
  601  1025.000  247.029   9.038E-02   2.343E-03
  602  1025.625  248.088   9.710E-02   2.380E-03
  603  1026.250  247.957   1.032E-01  -3.015E-03
  604  1026.875  246.788   1.091E-01   2.822E-03
  605  1027.500  247.309   1.086E-01  -6.172E-05
  606  1028.125  247.570   1.042E-01  -8.412E-04
  607  1028.750  246.293   1.104E-01  -4.843E-03
  608  1029.375  246.762   1.218E-01  -7.821E-03
  609  1030.000  248.539   1.157E-01  -8.460E-03
  610  1030.625  248.251   1.261E-01  -5.964E-03
  611  1031.250  247.232   1.156E-01  -5.122E-03
  612  1031.875  248.143   9.189E-02  -1.441E-03
  613  1032.500  247.568   9.106E-02  -1.460E-03
  614  1033.125  246.636   8.759E-02   4.546E-03
  615  1033.750  247.423   7.513E-02   4.679E-03
  616  1034.375  246.399   7.835E-02   9.229E-03
  617  1035.000  244.887   6.963E-02   3.559E-03
  618  1035.625  245.160   6.086E-02   9.164E-03
  619  1036.250  244.137   6.542E-02   1.440E-03
  620  1036.875  242.586   6.156E-02   5.354E-03
  621  1037.500  242.431   6.269E-02  -5.521E-04
  622  1038.125  241.511   6.695E-02   2.122E-03
  623  1038.750  240.179   6.458E-02  -1.770E-03
  624  1039.375  239.050   7.421E-02  -2.016E-03
  625  1040.000  238.334   7.675E-02  -1.348E-03
  626  1040.625  237.959   1.049E-01   9.403E-03
  627  1041.250  239.607   1.214E-01   4.173E-03
  628  1041.875  250.626   1.817E-01  -1.209E-02
  629  1042.500  261.755   5.949E-02   2.157E-03
  630  1043.125  264.832   3.196E-02   5.609E-03
  631  1043.750  264.763   3.777E-02   4.386E-03
  632  1044.375  260.456   6.760E-02   3.481E-03
  633  1045.000  256.624   8.091E-02   4.807E-03
  634  1045.625  254.248   9.599E-02   4.866E-03
  635  1046.250  249.228   1.118E-01  -6.068E-03
  636  1046.875  247.337   1.079E-01  -1.017E-03
  637  1047.500  244.158   1.212E-01   2.351E-04
  638  1048.125  242.554   1.218E-01   3.104E-03
  639  1048.750  243.345   1.237E-01  -6.469E-04
  640  1049.375  242.474   1.261E-01  -1.974E-03
  641  1050.000  241.538   1.102E-01  -2.266E-03
  642  1050.625  238.968   9.559E-02   3.024E-03
  643  1051.250  240.701   1.184E-01  -4.111E-03
  644  1051.875  240.224   1.436E-01  -8.304E-03
  645  1052.500  239.108   1.213E-01  -4.981E-03
  646  1053.125  238.910   1.010E-01   5.211E-03
  647  1053.750  239.417   1.061E-01   8.500E-04
  648  1054.375  240.548   1.059E-01  -8.858E-05
  649  1055.000  241.386   1.103E-01   2.679E-03
  650  1055.625  241.060   1.331E-01   1.479E-02
  651  1056.250  240.829   9.672E-02   1.017E-02
  652  1056.875  242.780   1.054E-01  -2.915E-03
  653  1057.500  244.260   1.211E-01  -1.083E-02
  654  1058.125  244.673   1.114E-01   1.394E-03
  655  1058.750  244.278   8.251E-02   3.236E-03
  656  1059.375  244.623   6.625E-02   1.990E-03
  657  1060.000  243.984   6.843E-02  -8.473E-05
  658  1060.625  245.139   7.308E-02   4.575E-03
  659  1061.250  246.965   7.837E-02   5.480E-03
  660  1061.875  248.779   8.407E-02   4.902E-03
  661  1062.500  251.272   1.016E-01  -3.527E-03
  662  1063.125  253.605   1.071E-01  -1.776E-03
  663  1063.750  255.348   1.042E-01   3.295E-03
  664  1064.375  257.276   9.291E-02   4.096E-03
  665  1065.000  258.955   7.962E-02   1.447E-03
  666  1065.625  259.293   1.032E-01  -9.744E-03
  667  1066.250  259.386   1.218E-01  -2.573E-02
  668  1066.875  262.913   6.816E-02  -1.005E-02
  669  1067.500  265.256   4.525E-02  -2.118E-03
  670  1068.125  266.218   2.971E-02   1.661E-03
  671  1068.750  266.283   2.431E-02   6.329E-03
  672  1069.375  268.106   2.600E-02   5.643E-03
  673  1070.000  269.227   2.913E-02   2.926E-03
  674  1070.625  269.329   2.637E-02   6.353E-03
  675  1071.250  269.986   2.080E-02   3.664E-03
  676  1071.875  269.722   1.936E-02   3.400E-03
  677  1072.500  269.863   1.760E-02   7.516E-04
  678  1073.125  269.657   1.724E-02  -1.149E-05
  679  1073.750  269.206   1.646E-02  -2.747E-03
  680  1074.375  267.071   3.074E-02  -1.581E-03
  681  1075.000  267.530   4.357E-02  -5.676E-03
  682  1075.625  269.381   1.340E-02   6.497E-04
  683  1076.250  269.858   1.243E-02  -2.695E-05
  684  1076.875  270.109   1.169E-02   2.891E-03
  685  1077.500  269.974   1.240E-02   4.223E-03
  686  1078.125  270.246   1.195E-02   5.179E-03
  687  1078.750  270.144   1.225E-02  -1.068E-03
  688  1079.375  270.308   1.055E-02   3.221E-03
  689  1080.000  269.922   1.052E-02   4.773E-04
  690  1080.625  269.502   1.228E-02  -1.918E-03
  691  1081.250  268.675   1.461E-02  -1.650E-03
  692  1081.875  269.675   1.010E-02  -2.382E-04
  693  1082.500  270.294   8.424E-03   1.083E-03
  694  1083.125  270.470   8.709E-03   4.361E-03
  695  1083.750  270.312   7.282E-03   9.446E-04
  696  1084.375  270.305   6.826E-03   2.106E-03
  697  1085.000  270.046   1.147E-02   3.202E-03
  698  1085.625  269.993   1.275E-02   4.541E-04
  699  1086.250  270.204   7.393E-03   1.977E-03
  700  1086.875  270.216   6.994E-03   3.710E-03
  701  1087.500  269.777   7.263E-03   9.266E-04
  702  1088.125  270.120   9.560E-03  -2.497E-03
  703  1088.750  270.435   5.381E-03   7.111E-04
  704  1089.375  270.567   4.869E-03   1.668E-03
  705  1090.000  270.467   6.578E-03  -4.341E-04
  706  1090.625  269.544   1.406E-02  -3.262E-03
  707  1091.250  268.389   1.756E-02  -3.110E-03
  708  1091.875  269.848   1.726E-02  -3.701E-03
  709  1092.500  270.700   5.910E-03   2.090E-04
  710  1093.125  270.804   5.101E-03   2.652E-03
  711  1093.750  270.635   4.835E-03   6.911E-04
  712  1094.375  270.417   8.454E-03   6.000E-03
  713  1095.000  270.422   6.370E-03   5.087E-05
  714  1210.000  268.874   1.481E-02  -4.499E-04
  715  1211.250  263.830   2.135E-02   4.098E-03
  716  1212.500  263.863   2.779E-02  -2.782E-03
  717  1213.750  269.025   1.381E-02  -5.628E-04
  718  1215.000  270.292   8.789E-03  -1.300E-03
  719  1216.250  270.022   1.536E-02  -1.243E-03
  720  1217.500  268.108   1.595E-02   2.190E-04
  721  1218.750  266.035   1.823E-02  -3.668E-05
  722  1220.000  267.310   2.104E-02  -1.426E-03
  723  1221.250  268.097   2.323E-02  -2.903E-03
  724  1222.500  268.496   2.526E-02   4.469E-05
  725  1223.750  266.812   2.172E-02  -1.610E-03
  726  1225.000  263.037   1.995E-02   4.599E-03
  727  1226.250  266.015   2.348E-02   2.671E-03
  728  1227.500  269.916   1.297E-02  -4.438E-04
  729  1228.750  268.489   2.668E-02  -3.398E-03
  730  1230.000  267.937   2.901E-02   5.615E-03
  731  1231.250  270.600   2.026E-02  -2.244E-03
  732  1232.500  271.178   1.168E-02   1.757E-03
  733  1233.750  270.806   1.479E-02  -1.403E-03
  734  1235.000  269.653   3.801E-02   5.692E-03
  735  1236.250  265.582   4.041E-02   2.571E-03
  736  1237.500  264.759   3.646E-02   3.420E-03
  737  1238.750  266.323   2.659E-02  -6.328E-03
  738  1240.000  266.728   2.209E-02  -1.262E-03
  739  1241.250  265.570   2.412E-02  -3.905E-03
  740  1242.500  262.754   2.564E-02  -3.656E-04
  741  1243.750  259.018   6.280E-02  -5.842E-03
  742  1245.000  259.187   1.010E-01   1.238E-04
  743  1246.250  262.057   3.174E-02  -2.068E-03
  744  1247.500  262.654   3.093E-02   3.010E-03
  745  1248.750  263.287   3.026E-02  -4.518E-03
  746  1250.000  264.426   2.618E-02  -7.083E-04
  747  1251.250  264.891   1.455E-02  -7.095E-04
  748  1252.500  261.532   1.762E-02   5.766E-04
  749  1253.750  257.156   2.526E-02  -6.328E-04
  750  1255.000  259.176   2.554E-02   5.633E-03
  751  1256.250  261.178   1.681E-02  -2.311E-03
  752  1257.500  260.672   1.468E-02   2.094E-03
  753  1258.750  254.894   3.747E-02   8.982E-03
  754  1260.000  245.476   6.523E-02   2.524E-02
  755  1261.250  247.555   3.500E-02   9.485E-03
  756  1262.500  251.910   2.162E-02  -1.109E-03
  757  1263.750  253.441   1.800E-02   1.594E-04
  758  1265.000  252.049   3.326E-02   6.572E-03
  759  1266.250  250.744   3.012E-02   3.635E-03
  760  1267.500  248.060   5.801E-02   1.328E-02
  761  1268.750  244.126   2.176E-02   3.445E-03
  762  1270.000  242.841   8.044E-02  -1.150E-03
  763  1271.250  240.088   4.737E-02   1.235E-02
  764  1272.500  246.333   6.879E-02   1.738E-02
  765  1273.750  251.427   2.597E-02  -2.391E-04
  766  1275.000  249.854   2.614E-02   7.846E-03
  767  1276.250  248.568   2.786E-02  -1.657E-03
  768  1277.500  250.290   2.891E-02   8.608E-03
  769  1278.750  254.338   2.050E-02   3.910E-03
  770  1280.000  253.535   2.242E-02   4.663E-03
  771  1281.250  251.319   3.070E-02  -3.510E-03
  772  1282.500  247.527   4.097E-02   3.178E-03
  773  1283.750  250.522   6.249E-02  -9.069E-04
  774  1285.000  258.594   1.845E-02   5.389E-03
  775  1286.250  256.489   3.207E-02   7.776E-03
  776  1287.500  246.631   7.683E-02   1.633E-02
  777  1288.750  244.662   8.101E-02   1.390E-02
  778  1290.000  251.291   3.283E-02   5.538E-03
  779  1291.250  253.454   2.455E-02   3.012E-03
  780  1292.500  251.062   2.319E-02   4.559E-03
  781  1293.750  247.340   2.688E-02   9.717E-04
  782  1295.000  245.391   3.965E-02  -3.345E-03
  783  1296.250  243.936   7.778E-02  -6.478E-03
  784  1297.500  243.228   8.106E-02  -9.177E-03
  785  1298.750  245.393   2.893E-02   5.673E-03
  786  1300.000  243.704   3.165E-02   7.691E-03
  787  1301.250  239.409   3.959E-02   6.177E-03
  788  1302.500  233.953   3.578E-02   8.968E-03
  789  1303.750  228.029   7.225E-02   4.423E-02
  790  1305.000  225.398   4.777E-02   2.016E-02
  791  1306.250  235.127   6.032E-02   1.441E-03
  792  1307.500  247.555   4.188E-02   1.469E-03
  793  1308.750  253.327   3.284E-02   1.353E-02
  794  1310.000  256.321   1.749E-02   4.867E-03
  795  1311.250  252.532   3.722E-02   2.673E-03
  796  1312.500  247.818   6.251E-02   3.610E-03
  797  1313.750  248.770   3.386E-02   1.866E-02
  798  1315.000  253.467   3.320E-02   1.331E-02
  799  1316.250  251.816   6.245E-02   1.502E-02
  800  1317.500  248.943   6.067E-02   1.677E-02
  801  1318.750  246.418   3.931E-02   1.322E-02
  802  1320.000  247.795   3.064E-02   1.506E-02
  803  1321.250  252.318   7.154E-02  -5.639E-03
  804  1322.500  254.942   3.532E-02  -5.511E-03
  805  1323.750  259.200   1.528E-02   1.056E-03
  806  1325.000  262.019   1.171E-02  -1.655E-04
  807  1326.250  256.859   3.609E-02  -3.877E-03
  808  1327.500  252.129   5.605E-02  -1.314E-03
  809  1328.750  257.981   2.176E-02  -8.580E-04
  810  1330.000  260.706   2.002E-02  -9.810E-04
  811  1331.250  257.375   4.393E-02  -6.370E-03
  812  1332.500  249.814   6.251E-02  -3.658E-03
  813  1333.750  255.538   2.951E-02  -5.729E-03
  814  1335.000  258.219   2.406E-02   6.109E-03
  815  1336.250  249.101   9.270E-02  -3.030E-03
  816  1337.500  238.828   6.528E-02   1.122E-02
  817  1338.750  238.146   9.334E-02  -8.684E-03
  818  1340.000  238.844   6.534E-02   2.773E-03
  819  1341.250  240.024   1.473E-01  -2.029E-02
  820  1342.500  244.747   3.928E-02   3.489E-03
  821  1343.750  255.321   2.183E-02  -1.283E-03
  822  1345.000  258.770   1.111E-02   8.058E-05
  823  1346.250  252.079   3.252E-02  -1.706E-03
  824  1347.500  247.998   3.535E-02   9.001E-04
  825  1348.750  249.644   8.259E-02  -5.522E-03
  826  1350.000  250.289   8.276E-02  -7.262E-03
  827  1351.250  251.913   3.802E-02  -1.093E-03
  828  1352.500  253.536   3.952E-02  -6.947E-04
  829  1353.750  253.018   4.903E-02   8.887E-04
  830  1355.000  247.248   6.410E-02   3.775E-03
  831  1356.250  249.545   3.075E-02   1.661E-03
  832  1357.500  253.984   2.823E-02   1.701E-03
  833  1358.750  253.652   2.976E-02   6.974E-03
  834  1360.000  248.923   4.677E-02   1.497E-02
  835  1361.250  242.625   4.220E-02   1.221E-02
  836  1362.500  238.807   6.877E-02   1.477E-02
  837  1363.750  243.002   6.242E-02   2.035E-02
  838  1365.000  252.005   2.920E-02  -2.132E-03
  839  1366.250  255.570   2.600E-02   6.124E-04
  840  1367.500  252.445   7.767E-02   1.182E-02
  841  1368.750  247.057   1.031E-01   2.657E-02
  842  1370.000  251.581   4.358E-02   7.362E-03
  843  1371.250  253.309   1.664E-02   2.443E-03
  844  1372.500  247.119   4.460E-02   1.580E-02
  845  1373.750  238.108   4.153E-02   2.312E-02
  846  1375.000  238.998   5.009E-02   3.048E-02
  847  1376.250  248.323   3.378E-02   1.885E-02
  848  1377.500  251.666   1.992E-02   5.494E-03
  849  1378.750  250.073   2.481E-02   1.096E-02
  850  1380.000  252.332   1.976E-02   1.036E-02
  851  1381.250  256.375   1.261E-02   1.754E-03
  852  1382.500  256.955   1.047E-02   4.342E-04
  853  1383.750  256.251   8.739E-03   8.785E-04
  854  1385.000  253.876   1.061E-02   3.175E-03
  855  1386.250  244.823   3.960E-02   2.526E-02
  856  1387.500  239.349   4.197E-02   2.294E-02
  857  1388.750  246.305   2.441E-02   1.541E-02
  858  1390.000  250.396   9.386E-03   3.503E-03
  859  1391.250  250.894   9.397E-03   3.281E-03
  860  1392.500  249.780   8.229E-03   6.368E-04
  861  1393.750  241.029   3.914E-02   2.621E-02
  862  1395.000  234.877   4.527E-02   2.645E-02
  863  1396.250  239.365   3.372E-02   1.306E-02
  864  1397.500  241.185   2.707E-02   1.483E-02
  865  1398.750  236.693   3.842E-02   1.179E-02
  866  1400.000  241.505   4.224E-02   3.058E-02
  867  1401.250  250.131   8.957E-03   6.039E-03
  868  1402.500  252.234   4.442E-03  -1.621E-07
  869  1403.750  246.869   2.038E-02   9.863E-03
  870  1405.000  241.821   4.315E-02   2.903E-02
  871  1406.250  248.345   2.208E-02   1.238E-02
  872  1407.500  254.328   6.339E-03   6.449E-04
  873  1408.750  254.223   7.470E-03   2.744E-03
  874  1410.000  251.873   1.174E-02  -1.647E-03
  875  1411.250  248.988   1.996E-02   8.694E-03
  876  1412.500  250.291   1.624E-02   6.176E-03
  877  1413.750  252.436   6.614E-03   3.478E-03
  878  1415.000  249.243   1.011E-02  -5.375E-03
  879  1416.250  243.776   2.474E-02   1.129E-02
  880  1417.500  237.479   4.125E-02   2.527E-02
  881  1418.750  230.884   7.308E-02   3.971E-02
  882  1420.000  233.495   9.180E-02   6.691E-02
  883  1421.250  242.840   1.533E-02   5.893E-03
  884  1422.500  243.199   1.970E-02   9.527E-03
  885  1423.750  238.666   4.882E-02   2.990E-02
  886  1425.000  244.379   3.288E-02   1.979E-02
  887  1426.250  250.198   4.950E-03  -1.684E-04
  888  1427.500  249.048   8.150E-03  -2.837E-03
  889  1428.750  242.724   2.639E-02   1.819E-02
  890  1430.000  237.887   4.976E-02  -4.875E-03
  891  1431.250  242.319   2.315E-02   1.624E-02
  892  1432.500  244.257   1.376E-02   3.939E-03
  893  1433.750  243.149   1.282E-02   2.300E-03
  894  1435.000  239.782   3.312E-02   2.441E-02
  895  1436.250  231.518   8.972E-02   6.213E-02
  896  1437.500  234.115   1.257E-01  -3.334E-02
  897  1438.750  244.010   1.216E-02   4.308E-03
  898  1440.000  248.879   8.170E-03  -2.549E-03
  899  1441.250  250.657   5.337E-03  -1.124E-03
  900  1442.500  251.494   4.316E-03  -7.308E-04
  901  1443.750  251.560   5.876E-03   1.410E-04
  902  1445.000  249.498   6.525E-03   2.401E-03
  903  1446.250  243.864   1.556E-02   7.587E-03
  904  1447.500  237.246   4.063E-02   2.874E-02
  905  1448.750  239.807   3.038E-02   1.895E-02
  906  1450.000  245.538   7.427E-03  -1.910E-04
  907  1451.250  244.111   1.413E-02   6.304E-03
  908  1452.500  241.975   1.838E-02   1.217E-02
  909  1453.750  240.081   1.505E-02   8.957E-03
  910  1455.000  233.311   7.969E-02   6.864E-02
  911  1456.250  225.870   6.912E-02   3.474E-02
  912  1457.500  223.485   7.687E-02  -1.501E-02
  913  1458.750  227.402   5.332E-02   3.513E-02
  914  1460.000  236.506   4.574E-02  -1.215E-02
  915  1461.250  242.750   5.466E-03   3.359E-03
  916  1462.500  242.647   3.736E-03   1.505E-03
  917  1463.750  236.296   3.881E-02  -5.470E-03
  918  1465.000  230.709   5.381E-02   3.420E-04
  919  1466.250  236.776   2.641E-02   1.649E-02
  920  1467.500  242.650   5.046E-03   2.856E-03
  921  1468.750  243.928   3.973E-03  -2.731E-03
  922  1470.000  240.484   1.674E-02   1.325E-02
  923  1471.250  232.037   6.059E-02   4.215E-02
  924  1472.500  225.700   7.286E-02  -8.916E-03
  925  1473.750  229.240   3.863E-02   1.677E-02
  926  1475.000  233.449   3.326E-02   1.945E-02
  927  1476.250  234.236   5.127E-02   3.126E-02
  928  1477.500  241.009   5.049E-02   4.159E-02
  929  1478.750  246.136   3.491E-03  -3.460E-04
  930  1480.000  244.325   1.637E-02   1.075E-02
  931  1481.250  240.619   2.499E-02   1.547E-02
  932  1482.500  243.667   1.365E-02   7.779E-03
  933  1483.750  245.722   3.219E-03  -8.401E-04
  934  1485.000  243.143   7.336E-03   1.654E-03
  935  1486.250  236.482   4.320E-02   3.340E-02
  936  1487.500  231.037   7.253E-02  -2.002E-02
  937  1488.750  230.414   6.445E-02   5.024E-02
  938  1490.000  227.657   1.040E-01  -1.005E-02
  939  1491.250  232.444   6.152E-02   4.852E-03
  940  1492.500  239.473   1.272E-02   9.027E-03
  941  1493.750  240.621   3.285E-03  -1.592E-03
  942  1495.000  235.265   3.238E-02  -5.102E-03
  943  1496.250  228.963   5.258E-02  -1.137E-02
  944  1497.500  229.408   3.323E-02  -2.364E-03
  945  1498.750  229.541   5.191E-02  -6.146E-03
  946  1500.000  233.121   4.188E-02  -3.295E-03
  947  1501.250  235.907   1.069E-02   6.758E-03
  948  1502.500  236.599   1.092E-02   6.822E-03
  949  1503.750  234.226   1.528E-02   9.375E-03
  950  1505.000  226.364   6.219E-02  -2.153E-03
  951  1506.250  220.622   5.542E-02  -2.818E-03
  952  1507.500  221.877   5.498E-02  -1.087E-02
  953  1508.750  226.189   8.447E-02  -1.073E-02
  954  1510.000  230.999   8.952E-02  -2.153E-02
  955  1511.250  233.659   3.810E-02   2.779E-02
  956  1512.500  234.462   7.873E-02  -2.376E-02
  957  1513.750  236.534   2.529E-02   1.762E-02
  958  1515.000  233.212   7.478E-02   6.435E-02
  959  1516.250  227.529   5.910E-02  -1.606E-02
  960  1517.500  226.566   4.681E-02  -5.759E-03
  961  1518.750  230.805   4.449E-02  -1.370E-02
  962  1520.000  227.845   5.546E-02  -4.926E-03
  963  1521.250  223.249   7.535E-02  -1.669E-02
  964  1522.500  224.308   6.802E-02   2.009E-03
  965  1523.750  228.298   4.828E-02   2.416E-03
  966  1525.000  228.451   5.130E-02  -6.884E-03
  967  1526.250  229.541   4.559E-02  -7.975E-03
  968  1527.500  230.583   5.966E-02  -1.881E-02
  969  1528.750  232.836   4.213E-02   3.111E-02
  970  1530.000  237.324   2.217E-02  -4.985E-03
  971  1531.250  235.579   2.187E-02   1.315E-02
  972  1532.500  229.205   1.173E-01   1.016E-01
  973  1533.750  225.939   4.543E-02   4.242E-03
  974  1535.000  230.558   2.786E-02   1.650E-02
  975  1536.250  232.952   7.930E-03   4.945E-03
  976  1537.500  229.091   3.446E-02   1.922E-02
  977  1538.750  221.972   5.123E-02   1.826E-02
  978  1540.000  219.896   4.677E-02   7.014E-03
  979  1541.250  221.455   4.064E-02   1.266E-02
  980  1542.500  223.633   6.196E-02   4.013E-02
  981  1543.750  226.566   3.064E-02   7.302E-03
  982  1545.000  228.394   4.684E-02   3.092E-02
  983  1546.250  234.002   3.045E-02   1.671E-02
  984  1547.500  238.215   7.718E-03   5.312E-03
  985  1548.750  235.810   2.357E-02   1.244E-02
  986  1550.000  232.293   4.518E-02   2.802E-02
  987  1551.250  234.409   1.907E-02   8.912E-03
  988  1552.500  234.616   1.064E-02   7.435E-03
  989  1553.750  229.604   3.594E-02   1.756E-02
  990  1555.000  227.808   3.520E-02   2.132E-02
  991  1556.250  227.787   3.041E-02   8.840E-03
  992  1557.500  222.579   6.725E-02   6.017E-03
  993  1558.750  219.168   5.071E-02  -3.331E-03
  994  1560.000  220.910   5.030E-02   1.242E-02
  995  1561.250  227.903   4.809E-02  -6.094E-03
  996  1562.500  233.760   1.046E-02   6.108E-03
  997  1563.750  232.946   2.406E-02   1.462E-02
  998  1565.000  230.991   5.831E-02  -1.055E-02
  999  1566.250  235.233   1.789E-02   9.508E-03
 1000  1567.500  235.715   1.829E-02   1.388E-02
 1001  1568.750  228.642   7.384E-02   5.405E-02
 1002  1570.000  226.590   6.931E-02   3.534E-03
 1003  1571.250  233.881   2.690E-02   1.655E-02
 1004  1572.500  237.062   6.936E-03   3.560E-03
 1005  1573.750  235.086   8.059E-03   1.105E-03
 1006  1575.000  228.763   6.766E-02   1.673E-03
 1007  1576.250  223.351   6.996E-02   2.792E-03
 1008  1577.500  228.893   5.650E-02   4.115E-02
 1009  1578.750  236.801   1.153E-02   3.061E-03
 1010  1580.000  241.482   5.219E-03   1.846E-03
 1011  1581.250  243.428   3.945E-03  -2.448E-03
 1012  1582.500  244.278   4.720E-03   3.358E-03
 1013  1583.750  245.470   3.277E-03  -1.785E-03
 1014  1585.000  246.619   1.903E-03   1.508E-04
 1015  1586.250  246.904   5.593E-03   2.775E-03
 1016  1587.500  246.973   2.100E-03   9.035E-05
 1017  1588.750  245.188   8.787E-03   5.312E-03
 1018  1590.000  242.814   1.407E-02   8.992E-03
 1019  1591.250  242.951   1.092E-02   1.677E-03
 1020  1592.500  244.125   1.465E-02   1.166E-02
 1021  1593.750  242.197   2.220E-02   1.368E-02
 1022  1595.000  239.909   3.009E-02   2.068E-02
 1023  1596.250  242.274   1.569E-02   7.612E-03
 1024  1597.500  245.830   7.105E-03   3.073E-03
 1025  1598.750  247.516   2.450E-03  -3.419E-05
 1026  1600.000  245.395   1.192E-02   6.739E-03
 1027  1601.250  241.746   2.138E-02   1.121E-02
 1028  1602.500  239.538   2.544E-02   1.320E-02
 1029  1603.750  241.052   2.649E-02   1.612E-02
 1030  1605.000  244.760   1.137E-02   8.910E-03
 1031  1606.250  241.678   2.518E-02   1.709E-02
 1032  1607.500  238.436   2.817E-02   1.510E-02
 1033  1608.750  237.769   3.028E-02   1.897E-02
 1034  1610.000  238.157   2.914E-02   1.901E-02
 1035  1611.250  242.458   8.951E-03   6.804E-03
 1036  1612.500  242.334   4.728E-03   9.565E-04
 1037  1613.750  239.526   7.970E-03  -2.528E-03
 1038  1615.000  233.374   2.583E-02   1.429E-02
 1039  1616.250  225.578   5.670E-02   2.662E-02
 1040  1617.500  226.914   7.643E-02   7.857E-03
 1041  1618.750  234.799   1.715E-02   7.979E-03
 1042  1620.000  237.684   7.026E-03   3.127E-03
 1043  1621.250  236.165   1.286E-02   9.276E-03
 1044  1622.500  229.962   4.332E-02   2.380E-02
 1045  1623.750  227.946   4.560E-02   2.109E-02
 1046  1625.000  234.362   2.251E-02   1.200E-02
 1047  1626.250  236.240   1.401E-02   7.854E-03
 1048  1627.500  231.752   4.147E-02   2.190E-02
 1049  1628.750  234.424   3.301E-02   1.921E-02
 1050  1630.000  240.364   6.619E-03   2.706E-04
 1051  1631.250  241.286   5.629E-03  -3.467E-03
 1052  1632.500  238.768   6.472E-03   3.291E-03
 1053  1633.750  232.883   3.525E-02   1.796E-02
 1054  1635.000  224.354   7.934E-02   4.327E-02
 1055  1636.250  223.551   4.924E-02   1.772E-02
 1056  1637.500  227.827   3.931E-02   2.278E-02
 1057  1638.750  234.300   2.502E-02   1.538E-02
 1058  1640.000  237.549   1.353E-02   8.891E-03
 1059  1641.250  238.549   1.117E-02   4.644E-03
 1060  1642.500  238.487   9.647E-03   4.308E-03
 1061  1643.750  236.951   1.218E-02   9.366E-03
 1062  1645.000  230.708   4.761E-02   7.572E-03
 1063  1646.250  223.947   4.856E-02   2.744E-02
 1064  1647.500  223.598   5.752E-02  -6.505E-03
 1065  1648.750  227.964   4.460E-02   6.113E-03
 1066  1650.000  231.453   1.424E-02   8.718E-03
 1067  1651.250  227.631   5.617E-02  -2.440E-03
 1068  1652.500  221.021   7.112E-02   1.302E-02
 1069  1653.750  220.662   7.192E-02   1.809E-02
 1070  1655.000  227.223   4.160E-02   1.503E-03
 1071  1656.250  233.929   1.100E-02   6.712E-03
 1072  1657.500  238.337   5.734E-03   4.078E-03
 1073  1658.750  241.009   3.560E-03   5.993E-05
 1074  1660.000  240.492   5.438E-03   2.649E-03
 1075  1661.250  235.326   2.801E-02   1.827E-02
 1076  1662.500  229.069   6.389E-02  -9.116E-04
 1077  1663.750  233.174   4.408E-02   2.855E-02
 1078  1665.000  239.541   7.643E-03   1.324E-03
 1079  1666.250  240.438   4.695E-03   2.090E-03
 1080  1667.500  235.612   3.398E-02   2.427E-02
 1081  1668.750  227.424   6.667E-02   4.096E-02
 1082  1670.000  226.437   6.780E-02  -3.108E-03
 1083  1671.250  229.130   3.735E-02   2.102E-02
 1084  1672.500  233.230   3.071E-02   2.269E-02
 1085  1673.750  233.800   2.519E-02   1.357E-02
 1086  1675.000  228.246   8.897E-02  -9.487E-03
 1087  1676.250  231.681   5.363E-02   2.850E-02
 1088  1677.500  237.658   9.642E-03   7.401E-03
 1089  1678.750  237.563   1.481E-02   8.887E-03
 1090  1680.000  233.540   3.037E-02   1.474E-02
 1091  1681.250  233.108   1.929E-02   7.676E-03
 1092  1682.500  229.489   4.165E-02   1.949E-03
 1093  1683.750  222.396   4.636E-02   1.994E-02
 1094  1685.000  223.102   5.837E-02   8.053E-03
 1095  1686.250  230.588   2.918E-02   1.363E-02
 1096  1687.500  233.936   1.195E-02   5.732E-03
 1097  1688.750  233.330   2.268E-02   1.041E-02
 1098  1690.000  234.213   2.775E-02   1.534E-02
 1099  1691.250  237.609   1.516E-02   9.460E-03
 1100  1692.500  238.634   5.008E-03   4.146E-03
 1101  1693.750  235.257   1.288E-02   8.136E-03
 1102  1695.000  227.891   6.616E-02   3.462E-02
 1103  1696.250  224.051   5.195E-02   1.362E-02
 1104  1697.500  227.457   3.092E-02   6.225E-03
 1105  1698.750  226.629   4.158E-02   1.332E-02
 1106  1700.000  222.127   8.949E-02   3.995E-02
 1107  1701.250  225.590   8.468E-02   3.092E-02
 1108  1702.500  232.183   2.085E-02   8.719E-03
 1109  1703.750  231.889   2.302E-02   1.020E-02
 1110  1705.000  229.044   3.919E-02   8.803E-04
 1111  1706.250  228.448   4.455E-02   1.946E-02
 1112  1707.500  234.473   3.819E-02   2.312E-02
 1113  1708.750  239.479   1.327E-02   8.679E-03
 1114  1710.000  238.250   2.231E-02   1.386E-02
 1115  1711.250  239.871   1.532E-02   9.857E-03
 1116  1712.500  239.603   1.443E-02   8.215E-03
 1117  1713.750  233.350   3.337E-02   1.973E-02
 1118  1715.000  228.647   3.184E-02   1.265E-02
 1119  1716.250  227.907   3.810E-02  -7.503E-03
 1120  1717.500  224.769   4.351E-02   1.735E-02
 1121  1718.750  227.807   5.903E-02   2.192E-03
 1122  1720.000  237.031   2.789E-02   1.766E-02
 1123  1721.250  242.031   5.464E-03   3.029E-03
 1124  1722.500  241.940   1.320E-02   8.588E-03
 1125  1723.750  241.847   2.391E-02   1.271E-02
 1126  1725.000  245.289   1.137E-02   6.624E-03
 1127  1726.250  245.481   7.231E-03   4.238E-03
 1128  1727.500  245.112   4.115E-03   2.578E-03
 1129  1728.750  242.213   2.732E-02   1.699E-02
 1130  1730.000  236.098   4.808E-02   2.844E-02
 1131  1731.250  235.898   2.814E-02   1.555E-02
 1132  1732.500  232.018   3.535E-02   1.737E-02
 1133  1733.750  225.156   4.850E-02   1.469E-02
 1134  1735.000  227.764   5.794E-02   2.277E-02
 1135  1736.250  235.457   2.222E-02   1.208E-02
 1136  1737.500  237.218   1.055E-02   5.359E-03
 1137  1738.750  233.062   3.730E-02   2.121E-02
 1138  1740.000  230.175   4.958E-02   2.385E-02
 1139  1741.250  236.231   2.774E-02   1.658E-02
 1140  1742.500  236.674   2.914E-02   1.538E-02
 1141  1743.750  234.996   3.573E-02   1.799E-02
 1142  1745.000  237.257   2.649E-02   1.464E-02
 1143  1746.250  235.021   3.171E-02   1.653E-02
 1144  1747.500  230.959   3.581E-02   1.339E-02
 1145  1748.750  230.417   3.846E-02   1.636E-02
 1146  1750.000  232.829   4.275E-02   2.313E-02
 1147  2155.000  269.897   3.614E-02   2.216E-03
 1148  2157.500  269.917   3.231E-02  -4.471E-03
 1149  2160.000  269.256   6.536E-02  -1.313E-02
 1150  2162.500  268.365   8.856E-02  -2.456E-02
 1151  2165.000  268.928   3.981E-02  -6.771E-03
 1152  2167.500  269.092   2.039E-02  -3.735E-04
 1153  2170.000  268.333   2.803E-02   4.637E-03
 1154  2172.500  267.668   3.417E-02   6.160E-03
 1155  2175.000  267.468   2.812E-02   7.784E-03
 1156  2177.500  266.666   2.508E-02   6.448E-03
 1157  2180.000  265.143   5.205E-02   3.271E-03
 1158  2182.500  263.120   4.680E-02  -3.939E-04
 1159  2185.000  261.084   3.685E-02   1.020E-03
 1160  2187.500  259.326   3.755E-02   4.773E-03
 1161  2190.000  258.981   3.482E-02   4.370E-03
 1162  2192.500  258.037   2.875E-02  -6.702E-03
 1163  2195.000  255.363   6.414E-02  -3.745E-02
 1164  2197.500  253.038   2.757E-02  -7.906E-03
 1165  2200.000  252.198   1.046E-01  -3.475E-02
 1166  2202.500  250.465   1.886E-02   6.930E-03
 1167  2205.000  247.720   8.039E-02  -2.890E-02
 1168  2207.500  246.830   2.649E-02   1.455E-02
 1169  2210.000  246.212   6.912E-02  -3.208E-02
 1170  2212.500  244.521   2.805E-02   1.248E-02
 1171  2215.000  244.452   6.682E-02  -4.984E-02
 1172  2217.500  244.961   1.977E-02   4.397E-03
 1173  2220.000  247.841   4.526E-02  -2.765E-02
 1174  2222.500  252.504   2.700E-02   9.157E-03
 1175  2225.000  251.705   5.410E-02  -2.301E-02
 1176  2227.500  245.344   3.019E-02   1.075E-02
 1177  2230.000  239.796   2.981E-02  -2.422E-03
 1178  2232.500  236.775   2.971E-02   1.117E-02
 1179  2235.000  235.029   4.449E-02   3.009E-02
 1180  2237.500  233.854   2.727E-02   8.710E-03
 1181  2240.000  233.724   4.128E-02   2.524E-02
 1182  2242.500  233.596   2.941E-02   1.632E-03
 1183  2245.000  233.718   3.834E-02   1.702E-02
 1184  2247.500  233.636   3.048E-02  -1.205E-03
 1185  2250.000  232.210   5.230E-02   3.166E-02
 1186  2252.500  229.929   3.589E-02  -1.113E-02
 1187  2255.000  228.398   6.551E-02   5.052E-02
 1188  2257.500  226.768   4.907E-02  -2.557E-02
 1189  2260.000  225.220   1.016E-01   7.333E-02
 1190  2262.500  224.328   6.689E-02  -4.307E-02
 1191  2265.000  224.031   1.130E-01   7.803E-02
 1192  2267.500  223.482   8.064E-02  -4.890E-02
 1193  2270.000  223.585   1.163E-01   7.927E-02
 1194  2272.500  223.782   8.556E-02  -4.718E-02
 1195  2275.000  224.090   1.095E-01   7.539E-02
 1196  2277.500  224.545   8.445E-02  -4.242E-02
 1197  2280.000  225.896   9.700E-02   6.863E-02
 1198  2282.500  227.324   6.968E-02  -2.250E-02
 1199  2285.000  227.713   9.383E-02   6.608E-02
 1200  2287.500  227.162   7.640E-02  -3.003E-02
 1201  2290.000  227.509   8.642E-02   5.918E-02
 1202  2292.500  228.221   7.669E-02  -3.222E-02
 1203  2295.000  228.974   7.692E-02   5.226E-02
 1204  2297.500  229.279   6.966E-02  -3.270E-02
 1205  2300.000  229.824   6.808E-02   4.624E-02
 1206  2302.500  230.315   6.359E-02  -3.312E-02
 1207  2305.000  230.878   6.176E-02   4.196E-02
 1208  2307.500  231.844   5.394E-02  -2.991E-02
 1209  2310.000  233.097   5.481E-02   3.624E-02
 1210  2312.500  234.013   4.601E-02  -2.496E-02
 1211  2315.000  234.793   4.956E-02   3.324E-02
 1212  2317.500  235.760   3.929E-02  -2.258E-02
 1213  2320.000  237.358   3.661E-02   2.399E-02
 1214  2322.500  238.779   3.369E-02  -2.020E-02
 1215  2325.000  239.373   3.359E-02   2.351E-02
 1216  2327.500  239.671   3.011E-02  -1.856E-02
 1217  2330.000  240.767   2.946E-02   2.157E-02
 1218  2332.500  241.505   3.045E-02  -1.696E-02
 1219  2335.000  242.296   3.149E-02   2.120E-02
 1220  2337.500  242.306   3.046E-02  -1.476E-02
 1221  2340.000  241.931   2.820E-02   1.951E-02
 1222  2342.500  241.671   2.935E-02  -1.564E-02
 1223  2345.000  240.951   2.933E-02   2.165E-02
 1224  2347.500  238.740   3.186E-02  -1.739E-02
 1225  2350.000  238.324   3.417E-02   2.478E-02
 1226  2352.500  240.487   2.907E-02  -1.748E-02
 1227  2355.000  242.146   2.230E-02   6.239E-03
 1228  2357.500  242.725   2.785E-02  -1.683E-02
 1229  2360.000  242.764   2.351E-02   8.759E-03
 1230  2362.500  242.368   2.611E-02  -1.744E-02
 1231  2365.000  241.626   2.509E-02   1.753E-02
 1232  2367.500  240.351   3.196E-02  -2.179E-02
 1233  2370.000  238.643   3.413E-02   2.342E-02
 1234  2372.500  236.202   3.343E-02  -2.287E-02
 1235  2375.000  233.141   4.466E-02   3.089E-02
 1236  2377.500  229.470   5.069E-02  -3.663E-02
 1237  2380.000  226.067   6.760E-02   4.392E-02
 1238  2382.500  224.823   6.154E-02  -4.535E-02
 1239  2385.000  229.744   4.328E-02   2.817E-02
 1240  2387.500  239.735   4.276E-02   7.013E-03
 1241  2390.000  249.868   4.616E-02   2.132E-02
 1242  2392.500  256.521   2.910E-02   1.509E-02
 1243  2395.000  259.747   2.066E-02   1.599E-02
 1244  2397.500  261.388   1.441E-02   9.218E-03
 1245  2400.000  262.608   1.475E-02   1.081E-02
 1246  2402.500  263.452   1.080E-02   6.509E-03
 1247  2405.000  263.997   1.089E-02   7.521E-03
 1248  2407.500  264.439   8.308E-03   4.991E-03
 1249  2410.000  264.902   9.450E-03   6.884E-03
 1250  2412.500  265.321   7.455E-03   4.295E-03
 1251  2415.000  265.709   8.686E-03   6.429E-03
 1252  2417.500  266.074   6.007E-03   3.430E-03
 1253  2420.000  266.453   6.938E-03   5.199E-03
 1254  2422.500  266.788   4.344E-03   2.578E-03
 1255  2425.000  267.116   5.546E-03   4.305E-03
 1256  2427.500  267.406   3.664E-03   2.151E-03
 1257  2430.000  267.678   4.673E-03   3.579E-03
 1258  2432.500  267.957   2.988E-03   1.703E-03
 1259  2435.000  268.216   5.151E-03   3.865E-03
 1260  2437.500  268.387   3.550E-03   1.694E-03
 1261  2440.000  268.491   5.688E-03   4.116E-03
 1262  2442.500  268.578   4.155E-03   2.198E-03
 1263  2445.000  268.713   6.016E-03   4.855E-03
 1264  2447.500  268.830   3.193E-03   1.994E-03
 1265  2450.000  268.983   4.879E-03   4.199E-03
 1266  2452.500  269.227   3.042E-03   1.840E-03
 1267  2455.000  269.602   4.513E-03   3.962E-03
 1268  2457.500  269.959   2.036E-03   1.244E-03
 1269  2460.000  270.330   3.602E-03   3.329E-03
 1270  2462.500  270.571   1.127E-03   9.145E-04
 1271  2465.000  270.571   3.283E-03   3.006E-03
 1272  2467.500  270.501   2.235E-03   1.200E-03
 1273  2470.000  270.479   4.362E-03   3.560E-03
 1274  2472.500  270.464   3.095E-03   1.644E-03
 1275  2475.000  270.584   5.106E-03   4.404E-03
 1276  2477.500  270.767   2.812E-03   1.792E-03
 1277  2480.000  271.052   4.499E-03   3.844E-03
 1278  2482.500  271.335   2.129E-03   1.215E-03
 1279  2485.000  271.593   3.907E-03   3.286E-03
 1280  2487.500  271.826   1.611E-03   8.643E-04
 1281  2490.000  272.017   3.250E-03   2.829E-03
 1282  2492.500  272.065   9.604E-04   4.408E-04
 1283  2495.000  272.148   3.355E-03   3.093E-03
 1284  2497.500  272.421   7.038E-04   3.809E-04
 1285  2500.000  272.599   2.842E-03   2.724E-03
 1286  2502.500  272.659   7.554E-04   2.625E-04
 1287  2505.000  272.721   2.734E-03   2.591E-03
 1288  2507.500  272.796   6.843E-04   1.757E-04
 1289  2510.000  272.770   2.781E-03   2.600E-03
 1290  2512.500  272.706   7.665E-04   1.841E-04
 1291  2515.000  272.757   2.611E-03   2.411E-03
 1292  2517.500  272.896   1.488E-03  -1.084E-04
 1293  2520.000  273.007   2.657E-03   2.253E-03
 1294  2522.500  273.006   1.234E-03   4.006E-04
 1295  2525.000  272.919   4.228E-03   3.425E-03
 1296  2527.500  272.807   3.552E-03   1.561E-03
 1297  2530.000  272.728   5.916E-03   4.217E-03
 1298  2532.500  272.611   5.266E-03   2.025E-03
 1299  2535.000  272.402   7.879E-03   5.459E-03
 1300  2537.500  272.188   5.136E-03   2.586E-03
 1301  2540.000  272.038   6.380E-03   5.235E-03
 1302  2542.500  271.765   5.460E-03   3.424E-03
 1303  2545.000  271.370   1.001E-02   7.721E-03
 1304  2547.500  271.062   7.756E-03   5.242E-03
 1305  2550.000  271.031   1.004E-02   8.085E-03
